Sample:	'PbX2(EM)
File name:	best-emission-Ó«¹âËØÄÆ.FDS
Operator:	YQFX
Comment:	'

Instrument
Model:	F-7000 FL Spectrophotometer
Serial number:	3041-006
ROM Version:	5J14000 12

Instrument parameters
Measurement type:	Wavelength scan
Scan mode:	Emission
Data mode:	Fluorescence
EX WL:	488.0 nm
EM  Start WL:	490.0 nm
EM  End WL:	800.0 nm
Scan speed:	1200 nm/min
Delay:	0.0 s
EX Slit:	5.0 nm
EM Slit:	5.0 nm
PMT Voltage:	700 V
Response:	Auto 
Corrected spectra:	Off
Shutter control:	On

Data points
nm	Data
490.0	2850
490.2	2842
490.4	2827
490.6	2797
490.8	2770
491.0	2740
491.2	2709
491.4	2672
491.6	2640
491.8	2605
492.0	2577
492.2	2548
492.4	2515
492.6	2502
492.8	2488
493.0	2471
493.2	2461
493.4	2453
493.6	2456
493.8	2460
494.0	2470
494.2	2490
494.4	2510
494.6	2531
494.8	2558
495.0	2590
495.2	2627
495.4	2665
495.6	2710
495.8	2753
496.0	2799
496.2	2853
496.4	2908
496.6	2962
496.8	3010
497.0	3070
497.2	3136
497.4	3200
497.6	3258
497.8	3320
498.0	3386
498.2	3449
498.4	3503
498.6	3572
498.8	3636
499.0	3700
499.2	3763
499.4	3829
499.6	3894
499.8	3952
500.0	4013
500.2	4074
500.4	4136
500.6	4207
500.8	4270
501.0	4334
501.2	4395
501.4	4454
501.6	4526
501.8	4587
502.0	4645
502.2	4707
502.4	4766
502.6	4818
502.8	4877
503.0	4927
503.2	4985
503.4	5043
503.6	5097
503.8	5158
504.0	5217
504.2	5266
504.4	5324
504.6	5372
504.8	5413
505.0	5461
505.2	5508
505.4	5559
505.6	5599
505.8	5647
506.0	5688
506.2	5728
506.4	5756
506.6	5797
506.8	5827
507.0	5871
507.2	5896
507.4	5920
507.6	5950
507.8	5978
508.0	6001
508.2	6034
508.4	6060
508.6	6077
508.8	6108
509.0	6128
509.2	6147
509.4	6170
509.6	6185
509.8	6198
510.0	6217
510.2	6232
510.4	6243
510.6	6253
510.8	6265
511.0	6280
511.2	6281
511.4	6284
511.6	6289
511.8	6290
512.0	6290
512.2	6282
512.4	6273
512.6	6268
512.8	6265
513.0	6263
513.2	6253
513.4	6252
513.6	6242
513.8	6241
514.0	6226
514.2	6214
514.4	6204
514.6	6184
514.8	6165
515.0	6155
515.2	6133
515.4	6119
515.6	6108
515.8	6093
516.0	6078
516.2	6060
516.4	6042
516.6	6018
516.8	5992
517.0	5970
517.2	5943
517.4	5913
517.6	5885
517.8	5855
518.0	5825
518.2	5791
518.4	5764
518.6	5738
518.8	5706
519.0	5679
519.2	5648
519.4	5627
519.6	5600
519.8	5570
520.0	5529
520.2	5497
520.4	5464
520.6	5429
520.8	5396
521.0	5365
521.2	5333
521.4	5296
521.6	5254
521.8	5222
522.0	5186
522.2	5152
522.4	5123
522.6	5083
522.8	5043
523.0	5005
523.2	4963
523.4	4935
523.6	4900
523.8	4861
524.0	4837
524.2	4798
524.4	4760
524.6	4726
524.8	4692
525.0	4648
525.2	4610
525.4	4576
525.6	4535
525.8	4497
526.0	4464
526.2	4427
526.4	4391
526.6	4357
526.8	4326
527.0	4292
527.2	4250
527.4	4212
527.6	4180
527.8	4148
528.0	4118
528.2	4078
528.4	4041
528.6	4005
528.8	3974
529.0	3941
529.2	3898
529.4	3859
529.6	3824
529.8	3785
530.0	3752
530.2	3718
530.4	3684
530.6	3654
530.8	3622
531.0	3594
531.2	3560
531.4	3532
531.6	3500
531.8	3471
532.0	3441
532.2	3411
532.4	3380
532.6	3347
532.8	3317
533.0	3287
533.2	3264
533.4	3235
533.6	3209
533.8	3182
534.0	3153
534.2	3128
534.4	3101
534.6	3073
534.8	3047
535.0	3023
535.2	2995
535.4	2962
535.6	2939
535.8	2916
536.0	2882
536.2	2853
536.4	2832
536.6	2806
536.8	2777
537.0	2756
537.2	2729
537.4	2706
537.6	2686
537.8	2662
538.0	2639
538.2	2619
538.4	2595
538.6	2572
538.8	2551
539.0	2537
539.2	2517
539.4	2497
539.6	2477
539.8	2459
540.0	2434
540.2	2416
540.4	2396
540.6	2376
540.8	2353
541.0	2333
541.2	2316
541.4	2295
541.6	2276
541.8	2259
542.0	2238
542.2	2220
542.4	2201
542.6	2179
542.8	2162
543.0	2146
543.2	2134
543.4	2120
543.6	2099
543.8	2079
544.0	2062
544.2	2043
544.4	2025
544.6	2010
544.8	1992
545.0	1978
545.2	1960
545.4	1944
545.6	1934
545.8	1916
546.0	1896
546.2	1881
546.4	1868
546.6	1853
546.8	1840
547.0	1829
547.2	1813
547.4	1799
547.6	1789
547.8	1779
548.0	1760
548.2	1748
548.4	1738
548.6	1725
548.8	1712
549.0	1698
549.2	1684
549.4	1669
549.6	1660
549.8	1646
550.0	1633
550.2	1619
550.4	1607
550.6	1595
550.8	1582
551.0	1569
551.2	1557
551.4	1542
551.6	1530
551.8	1517
552.0	1506
552.2	1494
552.4	1484
552.6	1467
552.8	1455
553.0	1445
553.2	1433
553.4	1425
553.6	1416
553.8	1404
554.0	1391
554.2	1382
554.4	1369
554.6	1359
554.8	1346
555.0	1334
555.2	1320
555.4	1310
555.6	1300
555.8	1289
556.0	1278
556.2	1266
556.4	1253
556.6	1242
556.8	1231
557.0	1222
557.2	1212
557.4	1203
557.6	1190
557.8	1183
558.0	1173
558.2	1161
558.4	1148
558.6	1138
558.8	1129
559.0	1124
559.2	1115
559.4	1104
559.6	1094
559.8	1081
560.0	1071
560.2	1060
560.4	1051
560.6	1041
560.8	1033
561.0	1022
561.2	1014
561.4	1003
561.6	993.9
561.8	983.2
562.0	974.2
562.2	968.5
562.4	963.5
562.6	954.2
562.8	945.3
563.0	931.6
563.2	922.0
563.4	911.2
563.6	902.5
563.8	892.4
564.0	886.4
564.2	878.4
564.4	870.6
564.6	861.8
564.8	854.3
565.0	849.6
565.2	843.2
565.4	833.3
565.6	824.7
565.8	817.9
566.0	811.9
566.2	805.1
566.4	794.7
566.6	787.0
566.8	779.9
567.0	771.5
567.2	762.9
567.4	758.3
567.6	749.4
567.8	740.3
568.0	734.6
568.2	726.9
568.4	719.3
568.6	712.5
568.8	701.4
569.0	696.6
569.2	690.6
569.4	682.6
569.6	674.4
569.8	669.8
570.0	663.6
570.2	657.6
570.4	649.7
570.6	642.3
570.8	639.6
571.0	631.4
571.2	624.8
571.4	616.8
571.6	612.3
571.8	607.3
572.0	600.9
572.2	595.6
572.4	587.0
572.6	581.6
572.8	576.6
573.0	571.4
573.2	565.0
573.4	559.4
573.6	554.0
573.8	549.3
574.0	546.1
574.2	539.2
574.4	536.3
574.6	530.1
574.8	524.6
575.0	520.0
575.2	514.1
575.4	509.0
575.6	503.5
575.8	498.5
576.0	492.8
576.2	487.1
576.4	480.9
576.6	477.6
576.8	472.7
577.0	465.2
577.2	460.3
577.4	454.3
577.6	450.2
577.8	446.1
578.0	440.8
578.2	436.9
578.4	432.1
578.6	427.8
578.8	423.9
579.0	419.9
579.2	415.3
579.4	412.3
579.6	408.5
579.8	404.7
580.0	401.1
580.2	395.9
580.4	392.9
580.6	390.0
580.8	385.7
581.0	381.7
581.2	377.5
581.4	373.7
581.6	370.1
581.8	365.6
582.0	363.8
582.2	358.2
582.4	355.5
582.6	352.6
582.8	349.6
583.0	345.7
583.2	342.5
583.4	339.7
583.6	336.2
583.8	330.9
584.0	328.3
584.2	324.5
584.4	321.1
584.6	318.6
584.8	313.8
585.0	311.6
585.2	307.8
585.4	304.0
585.6	301.1
585.8	298.8
586.0	295.4
586.2	291.9
586.4	288.6
586.6	288.4
586.8	285.5
587.0	283.0
587.2	278.9
587.4	278.0
587.6	275.9
587.8	272.5
588.0	268.6
588.2	264.9
588.4	262.8
588.6	260.1
588.8	257.3
589.0	255.3
589.2	252.6
589.4	250.7
589.6	248.2
589.8	245.4
590.0	242.4
590.2	238.9
590.4	237.0
590.6	234.6
590.8	234.5
591.0	232.0
591.2	230.2
591.4	228.1
591.6	224.8
591.8	222.2
592.0	220.2
592.2	218.6
592.4	217.0
592.6	214.0
592.8	211.3
593.0	209.8
593.2	207.1
593.4	205.0
593.6	204.1
593.8	201.6
594.0	199.8
594.2	197.4
594.4	196.0
594.6	194.4
594.8	192.4
595.0	192.1
595.2	190.1
595.4	187.0
595.6	183.6
595.8	182.6
596.0	181.0
596.2	179.5
596.4	177.4
596.6	174.4
596.8	172.2
597.0	171.4
597.2	171.0
597.4	169.1
597.6	166.9
597.8	165.7
598.0	163.5
598.2	163.4
598.4	162.9
598.6	161.1
598.8	159.8
599.0	157.9
599.2	157.1
599.4	155.1
599.6	153.4
599.8	151.5
600.0	149.6
600.2	148.2
600.4	146.3
600.6	145.0
600.8	144.0
601.0	142.4
601.2	140.6
601.4	139.1
601.6	137.9
601.8	136.1
602.0	134.8
602.2	134.2
602.4	132.5
602.6	131.7
602.8	129.8
603.0	130.1
603.2	127.4
603.4	126.0
603.6	124.9
603.8	124.7
604.0	123.6
604.2	122.4
604.4	121.0
604.6	119.8
604.8	118.9
605.0	118.6
605.2	117.1
605.4	115.5
605.6	114.4
605.8	113.2
606.0	110.5
606.2	110.0
606.4	109.0
606.6	109.0
606.8	108.4
607.0	107.8
607.2	106.2
607.4	105.1
607.6	104.4
607.8	103.0
608.0	102.4
608.2	100.7
608.4	99.37
608.6	98.33
608.8	96.10
609.0	95.61
609.2	94.79
609.4	94.55
609.6	93.78
609.8	93.07
610.0	93.14
610.2	91.23
610.4	90.61
610.6	89.92
610.8	88.57
611.0	86.85
611.2	86.68
611.4	86.41
611.6	84.90
611.8	83.92
612.0	82.77
612.2	82.00
612.4	81.14
612.6	80.37
612.8	79.65
613.0	78.11
613.2	77.86
613.4	77.26
613.6	77.25
613.8	76.54
614.0	76.23
614.2	75.88
614.4	75.54
614.6	74.22
614.8	73.30
615.0	72.58
615.2	71.40
615.4	70.47
615.6	69.65
615.8	68.97
616.0	67.94
616.2	67.28
616.4	67.08
616.6	66.70
616.8	65.08
617.0	63.84
617.2	62.62
617.4	62.28
617.6	60.64
617.8	60.53
618.0	60.30
618.2	60.06
618.4	59.32
618.6	58.54
618.8	58.19
619.0	58.00
619.2	57.41
619.4	56.93
619.6	56.14
619.8	56.05
620.0	55.65
620.2	55.47
620.4	55.12
620.6	53.94
620.8	53.40
621.0	52.84
621.2	52.02
621.4	50.42
621.6	49.90
621.8	49.66
622.0	49.04
622.2	48.77
622.4	48.59
622.6	47.95
622.8	47.11
623.0	46.77
623.2	46.07
623.4	45.24
623.6	44.66
623.8	44.47
624.0	44.20
624.2	44.00
624.4	43.43
624.6	42.88
624.8	42.01
625.0	41.95
625.2	41.15
625.4	40.77
625.6	40.15
625.8	39.94
626.0	39.82
626.2	38.88
626.4	38.30
626.6	37.85
626.8	37.28
627.0	37.23
627.2	36.95
627.4	36.56
627.6	36.27
627.8	35.15
628.0	35.15
628.2	34.84
628.4	34.64
628.6	33.91
628.8	33.54
629.0	32.79
629.2	32.62
629.4	32.37
629.6	31.56
629.8	31.30
630.0	30.86
630.2	30.63
630.4	30.77
630.6	30.32
630.8	30.20
631.0	30.22
631.2	29.77
631.4	28.77
631.6	28.34
631.8	27.89
632.0	27.62
632.2	27.26
632.4	27.56
632.6	26.94
632.8	26.83
633.0	26.33
633.2	26.23
633.4	25.76
633.6	25.67
633.8	25.29
634.0	24.84
634.2	24.53
634.4	24.29
634.6	24.08
634.8	23.97
635.0	23.64
635.2	23.38
635.4	23.09
635.6	23.24
635.8	23.09
636.0	23.04
636.2	22.47
636.4	22.65
636.6	22.15
636.8	21.81
637.0	21.74
637.2	21.60
637.4	21.50
637.6	21.10
637.8	20.82
638.0	20.48
638.2	20.43
638.4	19.93
638.6	19.92
638.8	19.87
639.0	19.33
639.2	18.95
639.4	18.70
639.6	18.57
639.8	18.57
640.0	18.50
640.2	18.40
640.4	18.17
640.6	17.76
640.8	17.25
641.0	17.17
641.2	17.37
641.4	16.96
641.6	16.83
641.8	16.33
642.0	16.31
642.2	16.09
642.4	16.21
642.6	16.36
642.8	15.84
643.0	15.41
643.2	15.27
643.4	15.17
643.6	14.88
643.8	14.89
644.0	14.81
644.2	14.53
644.4	14.44
644.6	14.19
644.8	14.10
645.0	14.11
645.2	14.13
645.4	13.87
645.6	13.84
645.8	13.45
646.0	13.17
646.2	12.97
646.4	12.76
646.6	12.63
646.8	12.51
647.0	12.29
647.2	12.26
647.4	12.60
647.6	12.40
647.8	11.96
648.0	12.17
648.2	12.30
648.4	11.83
648.6	11.76
648.8	11.53
649.0	11.61
649.2	11.33
649.4	11.22
649.6	11.15
649.8	10.86
650.0	10.74
650.2	10.31
650.4	10.25
650.6	10.18
650.8	10.41
651.0	10.42
651.2	10.18
651.4	10.25
651.6	9.928
651.8	9.687
652.0	9.762
652.2	10.01
652.4	9.762
652.6	9.457
652.8	9.323
653.0	9.218
653.2	8.994
653.4	8.825
653.6	8.821
653.8	8.810
654.0	8.720
654.2	8.646
654.4	8.318
654.6	8.220
654.8	8.283
655.0	8.116
655.2	8.155
655.4	8.111
655.6	7.977
655.8	7.745
656.0	7.622
656.2	7.705
656.4	7.782
656.6	7.648
656.8	7.720
657.0	7.514
657.2	7.498
657.4	7.308
657.6	7.391
657.8	7.401
658.0	7.457
658.2	7.235
658.4	7.081
658.6	7.113
658.8	6.967
659.0	6.625
659.2	6.567
659.4	6.789
659.6	6.478
659.8	6.531
660.0	6.393
660.2	6.304
660.4	6.269
660.6	6.209
660.8	6.032
661.0	5.911
661.2	5.707
661.4	5.793
661.6	5.844
661.8	5.814
662.0	5.665
662.2	5.431
662.4	5.425
662.6	5.471
662.8	5.362
663.0	5.239
663.2	5.223
663.4	5.170
663.6	5.156
663.8	5.133
664.0	5.059
664.2	5.027
664.4	5.133
664.6	4.951
664.8	5.015
665.0	5.102
665.2	4.923
665.4	4.887
665.6	4.906
665.8	4.780
666.0	4.700
666.2	4.641
666.4	4.470
666.6	4.335
666.8	4.464
667.0	4.404
667.2	4.266
667.4	4.331
667.6	4.212
667.8	4.158
668.0	4.151
668.2	4.163
668.4	4.309
668.6	4.113
668.8	4.046
669.0	3.964
669.2	4.087
669.4	3.896
669.6	3.751
669.8	3.672
670.0	3.367
670.2	3.342
670.4	3.413
670.6	3.475
670.8	3.546
671.0	3.547
671.2	3.432
671.4	3.328
671.6	3.409
671.8	3.342
672.0	3.223
672.2	3.359
672.4	3.327
672.6	3.302
672.8	3.276
673.0	3.088
673.2	3.013
673.4	3.018
673.6	2.904
673.8	2.962
674.0	3.034
674.2	2.861
674.4	2.962
674.6	3.067
674.8	3.002
675.0	3.003
675.2	2.868
675.4	2.849
675.6	2.788
675.8	2.608
676.0	2.748
676.2	2.868
676.4	2.762
676.6	2.932
676.8	2.766
677.0	2.777
677.2	2.506
677.4	2.331
677.6	2.349
677.8	2.389
678.0	2.406
678.2	2.408
678.4	2.531
678.6	2.501
678.8	2.472
679.0	2.427
679.2	2.349
679.4	2.107
679.6	2.123
679.8	2.144
680.0	2.147
680.2	2.299
680.4	2.223
680.6	2.290
680.8	2.246
681.0	2.151
681.2	2.157
681.4	2.065
681.6	2.041
681.8	2.045
682.0	2.134
682.2	2.113
682.4	2.006
682.6	1.980
682.8	2.014
683.0	1.992
683.2	1.912
683.4	1.901
683.6	1.909
683.8	1.941
684.0	1.867
684.2	1.906
684.4	1.944
684.6	1.830
684.8	1.792
685.0	1.829
685.2	1.816
685.4	1.777
685.6	1.787
685.8	1.650
686.0	1.625
686.2	1.582
686.4	1.596
686.6	1.586
686.8	1.660
687.0	1.643
687.2	1.648
687.4	1.725
687.6	1.752
687.8	1.682
688.0	1.643
688.2	1.736
688.4	1.605
688.6	1.599
688.8	1.535
689.0	1.558
689.2	1.579
689.4	1.555
689.6	1.573
689.8	1.521
690.0	1.606
690.2	1.449
690.4	1.458
690.6	1.550
690.8	1.492
691.0	1.499
691.2	1.658
691.4	1.605
691.6	1.656
691.8	1.604
692.0	1.572
692.2	1.519
692.4	1.429
692.6	1.409
692.8	1.439
693.0	1.374
693.2	1.377
693.4	1.214
693.6	1.178
693.8	1.190
694.0	1.229
694.2	1.308
694.4	1.211
694.6	1.289
694.8	1.294
695.0	1.264
695.2	1.218
695.4	1.260
695.6	1.141
695.8	1.176
696.0	1.171
696.2	1.220
696.4	1.214
696.6	1.193
696.8	1.117
697.0	1.069
697.2	1.024
697.4	1.127
697.6	1.083
697.8	1.102
698.0	1.078
698.2	1.230
698.4	1.178
698.6	1.110
698.8	1.051
699.0	1.102
699.2	1.112
699.4	1.101
699.6	1.188
699.8	1.210
700.0	1.176
700.2	1.073
700.4	1.098
700.6	1.129
700.8	1.075
701.0	0.989
701.2	0.985
701.4	1.040
701.6	1.007
701.8	1.011
702.0	1.017
702.2	1.027
702.4	1.063
702.6	1.062
702.8	1.025
703.0	1.077
703.2	0.985
703.4	1.005
703.6	0.905
703.8	0.914
704.0	0.853
704.2	0.901
704.4	0.849
704.6	0.841
704.8	0.856
705.0	0.856
705.2	0.829
705.4	0.813
705.6	0.811
705.8	0.730
706.0	0.699
706.2	0.745
706.4	0.819
706.6	0.776
706.8	0.724
707.0	0.740
707.2	0.802
707.4	0.779
707.6	0.741
707.8	0.809
708.0	0.877
708.2	0.871
708.4	0.902
708.6	0.840
708.8	0.849
709.0	0.897
709.2	0.804
709.4	0.796
709.6	0.841
709.8	0.785
710.0	0.746
710.2	0.780
710.4	0.737
710.6	0.756
710.8	0.688
711.0	0.739
711.2	0.803
711.4	0.694
711.6	0.653
711.8	0.652
712.0	0.660
712.2	0.683
712.4	0.675
712.6	0.682
712.8	0.638
713.0	0.595
713.2	0.652
713.4	0.630
713.6	0.679
713.8	0.665
714.0	0.668
714.2	0.698
714.4	0.703
714.6	0.735
714.8	0.741
715.0	0.780
715.2	0.760
715.4	0.730
715.6	0.703
715.8	0.713
716.0	0.706
716.2	0.698
716.4	0.650
716.6	0.608
716.8	0.567
717.0	0.651
717.2	0.753
717.4	0.724
717.6	0.684
717.8	0.703
718.0	0.682
718.2	0.595
718.4	0.579
718.6	0.567
718.8	0.566
719.0	0.554
719.2	0.568
719.4	0.581
719.6	0.591
719.8	0.606
720.0	0.615
720.2	0.674
720.4	0.628
720.6	0.622
720.8	0.633
721.0	0.513
721.2	0.510
721.4	0.470
721.6	0.517
721.8	0.560
722.0	0.586
722.2	0.625
722.4	0.645
722.6	0.697
722.8	0.679
723.0	0.604
723.2	0.625
723.4	0.610
723.6	0.521
723.8	0.582
724.0	0.572
724.2	0.570
724.4	0.576
724.6	0.527
724.8	0.615
725.0	0.541
725.2	0.523
725.4	0.519
725.6	0.485
725.8	0.477
726.0	0.478
726.2	0.452
726.4	0.499
726.6	0.507
726.8	0.560
727.0	0.571
727.2	0.606
727.4	0.557
727.6	0.553
727.8	0.613
728.0	0.617
728.2	0.605
728.4	0.635
728.6	0.567
728.8	0.608
729.0	0.579
729.2	0.661
729.4	0.646
729.6	0.601
729.8	0.702
730.0	0.789
730.2	0.755
730.4	0.732
730.6	0.788
730.8	0.908
731.0	0.882
731.2	0.820
731.4	0.971
731.6	0.996
731.8	0.950
732.0	0.925
732.2	0.856
732.4	0.830
732.6	0.811
732.8	0.930
733.0	0.920
733.2	0.925
733.4	0.888
733.6	0.879
733.8	0.917
734.0	0.872
734.2	0.874
734.4	0.954
734.6	0.921
734.8	0.950
735.0	0.927
735.2	0.962
735.4	0.988
735.6	0.961
735.8	0.896
736.0	0.868
736.2	0.901
736.4	0.865
736.6	0.937
736.8	0.926
737.0	0.896
737.2	0.860
737.4	0.817
737.6	0.833
737.8	0.888
738.0	0.941
738.2	0.902
738.4	0.864
738.6	0.817
738.8	0.845
739.0	0.754
739.2	0.788
739.4	0.716
739.6	0.730
739.8	0.756
740.0	0.727
740.2	0.667
740.4	0.647
740.6	0.636
740.8	0.643
741.0	0.579
741.2	0.619
741.4	0.638
741.6	0.615
741.8	0.655
742.0	0.583
742.2	0.578
742.4	0.508
742.6	0.589
742.8	0.567
743.0	0.590
743.2	0.582
743.4	0.534
743.6	0.463
743.8	0.466
744.0	0.522
744.2	0.473
744.4	0.456
744.6	0.400
744.8	0.357
745.0	0.448
745.2	0.388
745.4	0.424
745.6	0.369
745.8	0.347
746.0	0.315
746.2	0.295
746.4	0.310
746.6	0.327
746.8	0.308
747.0	0.314
747.2	0.320
747.4	0.340
747.6	0.378
747.8	0.338
748.0	0.361
748.2	0.289
748.4	0.302
748.6	0.289
748.8	0.343
749.0	0.343
749.2	0.362
749.4	0.363
749.6	0.333
749.8	0.297
750.0	0.271
750.2	0.303
750.4	0.331
750.6	0.360
750.8	0.366
751.0	0.405
751.2	0.429
751.4	0.409
751.6	0.400
751.8	0.352
752.0	0.386
752.2	0.354
752.4	0.274
752.6	0.346
752.8	0.359
753.0	0.397
753.2	0.353
753.4	0.391
753.6	0.394
753.8	0.375
754.0	0.305
754.2	0.325
754.4	0.284
754.6	0.343
754.8	0.390
755.0	0.418
755.2	0.397
755.4	0.400
755.6	0.387
755.8	0.393
756.0	0.349
756.2	0.367
756.4	0.343
756.6	0.406
756.8	0.403
757.0	0.374
757.2	0.406
757.4	0.420
757.6	0.350
757.8	0.378
758.0	0.322
758.2	0.289
758.4	0.325
758.6	0.325
758.8	0.333
759.0	0.365
759.2	0.354
759.4	0.356
759.6	0.352
759.8	0.327
760.0	0.313
760.2	0.297
760.4	0.319
760.6	0.323
760.8	0.341
761.0	0.301
761.2	0.304
761.4	0.321
761.6	0.305
761.8	0.326
762.0	0.336
762.2	0.302
762.4	0.353
762.6	0.347
762.8	0.358
763.0	0.323
763.2	0.283
763.4	0.292
763.6	0.302
763.8	0.306
764.0	0.292
764.2	0.310
764.4	0.356
764.6	0.324
764.8	0.290
765.0	0.292
765.2	0.311
765.4	0.299
765.6	0.389
765.8	0.394
766.0	0.348
766.2	0.353
766.4	0.343
766.6	0.295
766.8	0.304
767.0	0.278
767.2	0.304
767.4	0.295
767.6	0.331
767.8	0.350
768.0	0.395
768.2	0.310
768.4	0.281
768.6	0.261
768.8	0.296
769.0	0.287
769.2	0.302
769.4	0.296
769.6	0.293
769.8	0.266
770.0	0.284
770.2	0.307
770.4	0.311
770.6	0.323
770.8	0.312
771.0	0.343
771.2	0.418
771.4	0.372
771.6	0.361
771.8	0.344
772.0	0.364
772.2	0.330
772.4	0.354
772.6	0.374
772.8	0.354
773.0	0.329
773.2	0.305
773.4	0.279
773.6	0.311
773.8	0.308
774.0	0.368
774.2	0.293
774.4	0.276
774.6	0.243
774.8	0.301
775.0	0.298
775.2	0.299
775.4	0.297
775.6	0.262
775.8	0.306
776.0	0.302
776.2	0.279
776.4	0.319
776.6	0.289
776.8	0.308
777.0	0.288
777.2	0.270
777.4	0.314
777.6	0.329
777.8	0.287
778.0	0.321
778.2	0.289
778.4	0.285
778.6	0.286
778.8	0.336
779.0	0.288
779.2	0.296
779.4	0.298
779.6	0.315
779.8	0.351
780.0	0.372
780.2	0.325
780.4	0.278
780.6	0.291
780.8	0.272
781.0	0.296
781.2	0.289
781.4	0.317
781.6	0.305
781.8	0.325
782.0	0.376
782.2	0.364
782.4	0.312
782.6	0.270
782.8	0.374
783.0	0.336
783.2	0.302
783.4	0.360
783.6	0.373
783.8	0.363
784.0	0.334
784.2	0.286
784.4	0.320
784.6	0.324
784.8	0.281
785.0	0.299
785.2	0.330
785.4	0.292
785.6	0.347
785.8	0.329
786.0	0.314
786.2	0.312
786.4	0.318
786.6	0.279
786.8	0.292
787.0	0.381
787.2	0.319
787.4	0.336
787.6	0.339
787.8	0.385
788.0	0.372
788.2	0.389
788.4	0.356
788.6	0.338
788.8	0.326
789.0	0.308
789.2	0.275
789.4	0.317
789.6	0.357
789.8	0.388
790.0	0.384
790.2	0.395
790.4	0.380
790.6	0.346
790.8	0.396
791.0	0.348
791.2	0.467
791.4	0.409
791.6	0.419
791.8	0.454
792.0	0.394
792.2	0.360
792.4	0.373
792.6	0.328
792.8	0.289
793.0	0.332
793.2	0.259
793.4	0.297
793.6	0.312
793.8	0.348
794.0	0.357
794.2	0.321
794.4	0.396
794.6	0.393
794.8	0.362
795.0	0.353
795.2	0.328
795.4	0.373
795.6	0.314
795.8	0.305
796.0	0.294
796.2	0.330
796.4	0.362
796.6	0.297
796.8	0.335
797.0	0.338
797.2	0.332
797.4	0.365
797.6	0.352
797.8	0.356
798.0	0.295
798.2	0.322
798.4	0.289
798.6	0.312
798.8	0.315
799.0	0.289
799.2	0.280
799.4	0.270
799.6	0.285
799.8	0.294
800.0	0.258

