Sample:	'PbX2(EX)
File name:	PbX2_20251114_170552.FDS
Operator:	YQFX
Comment:	'

Instrument
Model:	F-7000 FL Spectrophotometer
Serial number:	3041-006
ROM Version:	5J14000 12

Instrument parameters
Measurement type:	Wavelength scan
Scan mode:	Excitation
Data mode:	Fluorescence
EM WL:	511.0 nm
EX  Start WL:	300.0 nm
EX  End WL:	500.0 nm
Scan speed:	1200 nm/min
Delay:	0.0 s
EX Slit:	5.0 nm
EM Slit:	5.0 nm
PMT Voltage:	700 V
Response:	Auto 
Corrected spectra:	Off
Shutter control:	On

Data points
nm	Data
300.0	1239
300.2	1238
300.4	1233
300.6	1221
300.8	1214
301.0	1215
301.2	1213
301.4	1207
301.6	1201
301.8	1198
302.0	1190
302.2	1187
302.4	1180
302.6	1167
302.8	1167
303.0	1164
303.2	1163
303.4	1164
303.6	1159
303.8	1155
304.0	1154
304.2	1151
304.4	1149
304.6	1144
304.8	1136
305.0	1136
305.2	1131
305.4	1137
305.6	1136
305.8	1132
306.0	1132
306.2	1137
306.4	1135
306.6	1140
306.8	1136
307.0	1140
307.2	1139
307.4	1140
307.6	1136
307.8	1138
308.0	1142
308.2	1142
308.4	1143
308.6	1143
308.8	1145
309.0	1150
309.2	1149
309.4	1156
309.6	1158
309.8	1159
310.0	1159
310.2	1161
310.4	1167
310.6	1171
310.8	1177
311.0	1179
311.2	1183
311.4	1183
311.6	1183
311.8	1192
312.0	1191
312.2	1192
312.4	1194
312.6	1200
312.8	1203
313.0	1205
313.2	1209
313.4	1220
313.6	1225
313.8	1228
314.0	1233
314.2	1236
314.4	1238
314.6	1241
314.8	1246
315.0	1251
315.2	1254
315.4	1260
315.6	1266
315.8	1271
316.0	1273
316.2	1272
316.4	1273
316.6	1274
316.8	1279
317.0	1283
317.2	1291
317.4	1297
317.6	1297
317.8	1303
318.0	1305
318.2	1307
318.4	1314
318.6	1314
318.8	1321
319.0	1324
319.2	1329
319.4	1335
319.6	1339
319.8	1333
320.0	1333
320.2	1328
320.4	1327
320.6	1329
320.8	1329
321.0	1327
321.2	1323
321.4	1324
321.6	1324
321.8	1319
322.0	1318
322.2	1311
322.4	1307
322.6	1307
322.8	1306
323.0	1300
323.2	1292
323.4	1284
323.6	1288
323.8	1290
324.0	1285
324.2	1281
324.4	1281
324.6	1274
324.8	1266
325.0	1262
325.2	1252
325.4	1246
325.6	1243
325.8	1238
326.0	1229
326.2	1218
326.4	1211
326.6	1202
326.8	1194
327.0	1183
327.2	1182
327.4	1172
327.6	1164
327.8	1158
328.0	1148
328.2	1143
328.4	1132
328.6	1125
328.8	1121
329.0	1109
329.2	1097
329.4	1090
329.6	1081
329.8	1073
330.0	1069
330.2	1058
330.4	1048
330.6	1040
330.8	1032
331.0	1019
331.2	1012
331.4	1003
331.6	997.1
331.8	990.5
332.0	977.1
332.2	970.2
332.4	965.3
332.6	957.7
332.8	949.4
333.0	940.5
333.2	930.9
333.4	923.1
333.6	914.0
333.8	909.2
334.0	899.0
334.2	892.3
334.4	882.2
334.6	872.1
334.8	861.6
335.0	854.7
335.2	845.3
335.4	839.2
335.6	830.0
335.8	823.8
336.0	815.8
336.2	810.1
336.4	802.6
336.6	794.7
336.8	783.5
337.0	776.8
337.2	771.0
337.4	767.1
337.6	756.4
337.8	750.9
338.0	740.9
338.2	733.4
338.4	727.2
338.6	721.4
338.8	714.6
339.0	706.9
339.2	700.3
339.4	697.7
339.6	691.6
339.8	686.3
340.0	679.6
340.2	672.8
340.4	668.9
340.6	662.3
340.8	656.7
341.0	651.4
341.2	648.3
341.4	642.8
341.6	634.7
341.8	631.4
342.0	625.6
342.2	617.2
342.4	614.4
342.6	611.1
342.8	606.9
343.0	599.7
343.2	596.2
343.4	592.8
343.6	591.0
343.8	590.2
344.0	586.0
344.2	580.6
344.4	573.5
344.6	570.6
344.8	567.2
345.0	566.7
345.2	563.1
345.4	562.5
345.6	558.3
345.8	556.1
346.0	551.1
346.2	548.3
346.4	547.5
346.6	546.7
346.8	547.6
347.0	542.8
347.2	545.0
347.4	542.3
347.6	540.8
347.8	542.2
348.0	539.9
348.2	540.6
348.4	538.1
348.6	534.3
348.8	535.5
349.0	534.2
349.2	533.0
349.4	531.9
349.6	532.2
349.8	530.3
350.0	531.2
350.2	530.6
350.4	530.8
350.6	532.4
350.8	530.2
351.0	532.7
351.2	532.7
351.4	532.1
351.6	538.2
351.8	538.2
352.0	539.1
352.2	540.1
352.4	541.3
352.6	537.9
352.8	540.4
353.0	545.5
353.2	544.7
353.4	546.2
353.6	546.8
353.8	549.5
354.0	549.0
354.2	549.1
354.4	553.8
354.6	554.9
354.8	555.9
355.0	560.5
355.2	560.3
355.4	560.6
355.6	563.9
355.8	566.8
356.0	569.1
356.2	568.3
356.4	575.1
356.6	577.4
356.8	580.3
357.0	580.7
357.2	582.3
357.4	584.9
357.6	585.4
357.8	587.8
358.0	592.9
358.2	595.2
358.4	595.5
358.6	601.0
358.8	604.7
359.0	607.5
359.2	608.6
359.4	611.4
359.6	615.2
359.8	617.7
360.0	622.3
360.2	623.6
360.4	625.0
360.6	626.1
360.8	627.2
361.0	628.5
361.2	630.8
361.4	634.0
361.6	639.3
361.8	642.9
362.0	646.2
362.2	646.7
362.4	650.1
362.6	653.3
362.8	655.6
363.0	658.7
363.2	663.1
363.4	666.4
363.6	665.9
363.8	664.3
364.0	667.7
364.2	672.0
364.4	676.6
364.6	678.1
364.8	681.3
365.0	681.3
365.2	681.7
365.4	682.6
365.6	686.0
365.8	689.2
366.0	693.6
366.2	696.6
366.4	696.6
366.6	700.0
366.8	702.1
367.0	701.6
367.2	704.4
367.4	707.8
367.6	709.5
367.8	712.1
368.0	711.7
368.2	714.1
368.4	716.9
368.6	718.8
368.8	723.4
369.0	722.7
369.2	724.4
369.4	723.1
369.6	725.7
369.8	725.7
370.0	726.6
370.2	727.8
370.4	723.8
370.6	724.3
370.8	728.0
371.0	727.8
371.2	726.1
371.4	727.3
371.6	729.1
371.8	733.2
372.0	732.7
372.2	731.1
372.4	734.5
372.6	735.8
372.8	736.4
373.0	734.7
373.2	735.5
373.4	738.1
373.6	735.0
373.8	736.4
374.0	739.4
374.2	738.3
374.4	741.4
374.6	743.6
374.8	744.0
375.0	746.1
375.2	743.9
375.4	743.6
375.6	743.2
375.8	740.9
376.0	742.5
376.2	741.3
376.4	739.6
376.6	739.9
376.8	741.0
377.0	741.4
377.2	743.3
377.4	742.3
377.6	743.7
377.8	743.3
378.0	741.9
378.2	743.7
378.4	743.5
378.6	743.2
378.8	741.1
379.0	737.1
379.2	739.7
379.4	736.5
379.6	735.0
379.8	736.4
380.0	736.5
380.2	736.5
380.4	733.7
380.6	734.1
380.8	735.8
381.0	734.6
381.2	733.8
381.4	734.9
381.6	731.8
381.8	733.2
382.0	731.6
382.2	731.3
382.4	729.1
382.6	727.8
382.8	726.5
383.0	725.7
383.2	725.6
383.4	723.1
383.6	723.5
383.8	721.6
384.0	720.9
384.2	720.9
384.4	719.4
384.6	717.8
384.8	716.1
385.0	714.0
385.2	712.6
385.4	714.2
385.6	713.2
385.8	711.6
386.0	709.0
386.2	709.0
386.4	705.3
386.6	705.5
386.8	705.0
387.0	703.6
387.2	702.5
387.4	700.4
387.6	702.2
387.8	700.7
388.0	700.7
388.2	697.9
388.4	695.4
388.6	698.2
388.8	697.1
389.0	691.9
389.2	690.6
389.4	690.2
389.6	690.0
389.8	687.4
390.0	686.3
390.2	682.8
390.4	684.8
390.6	684.0
390.8	684.3
391.0	682.6
391.2	681.2
391.4	679.1
391.6	675.5
391.8	673.3
392.0	672.4
392.2	671.5
392.4	672.0
392.6	670.3
392.8	668.8
393.0	666.9
393.2	666.8
393.4	666.9
393.6	666.9
393.8	667.1
394.0	665.7
394.2	666.6
394.4	665.8
394.6	664.0
394.8	663.2
395.0	663.9
395.2	661.3
395.4	660.2
395.6	660.6
395.8	661.6
396.0	661.9
396.2	660.2
396.4	659.0
396.6	657.8
396.8	656.6
397.0	658.0
397.2	657.1
397.4	656.1
397.6	655.1
397.8	656.8
398.0	656.7
398.2	657.1
398.4	653.6
398.6	653.5
398.8	652.3
399.0	651.4
399.2	651.9
399.4	650.2
399.6	649.1
399.8	650.6
400.0	651.8
400.2	652.5
400.4	651.8
400.6	652.5
400.8	651.8
401.0	653.9
401.2	655.3
401.4	654.6
401.6	655.5
401.8	656.6
402.0	657.1
402.2	658.5
402.4	659.1
402.6	658.2
402.8	657.2
403.0	656.6
403.2	659.8
403.4	660.1
403.6	665.5
403.8	667.6
404.0	669.2
404.2	669.3
404.4	672.1
404.6	674.2
404.8	674.7
405.0	674.0
405.2	675.0
405.4	680.2
405.6	679.7
405.8	681.8
406.0	684.8
406.2	689.5
406.4	692.4
406.6	696.5
406.8	698.0
407.0	701.2
407.2	703.9
407.4	710.8
407.6	711.3
407.8	715.7
408.0	719.8
408.2	722.7
408.4	729.1
408.6	731.2
408.8	733.8
409.0	735.3
409.2	742.0
409.4	745.6
409.6	749.5
409.8	754.6
410.0	761.3
410.2	764.2
410.4	765.0
410.6	771.3
410.8	777.3
411.0	777.6
411.2	783.0
411.4	791.2
411.6	799.4
411.8	803.5
412.0	807.0
412.2	812.4
412.4	817.0
412.6	820.9
412.8	826.1
413.0	833.5
413.2	836.2
413.4	844.3
413.6	849.6
413.8	855.1
414.0	863.6
414.2	869.7
414.4	877.2
414.6	883.7
414.8	890.0
415.0	895.5
415.2	903.7
415.4	905.6
415.6	912.0
415.8	917.9
416.0	928.1
416.2	934.8
416.4	938.9
416.6	944.6
416.8	952.9
417.0	957.9
417.2	966.1
417.4	971.8
417.6	979.3
417.8	986.6
418.0	992.4
418.2	998.8
418.4	1008
418.6	1015
418.8	1024
419.0	1026
419.2	1030
419.4	1039
419.6	1048
419.8	1059
420.0	1064
420.2	1071
420.4	1074
420.6	1079
420.8	1088
421.0	1096
421.2	1101
421.4	1108
421.6	1117
421.8	1128
422.0	1137
422.2	1140
422.4	1146
422.6	1155
422.8	1161
423.0	1170
423.2	1181
423.4	1190
423.6	1197
423.8	1206
424.0	1208
424.2	1215
424.4	1223
424.6	1228
424.8	1239
425.0	1250
425.2	1261
425.4	1268
425.6	1272
425.8	1283
426.0	1294
426.2	1302
426.4	1312
426.6	1322
426.8	1331
427.0	1340
427.2	1347
427.4	1354
427.6	1362
427.8	1368
428.0	1380
428.2	1387
428.4	1396
428.6	1405
428.8	1416
429.0	1426
429.2	1435
429.4	1449
429.6	1453
429.8	1464
430.0	1477
430.2	1487
430.4	1496
430.6	1508
430.8	1514
431.0	1523
431.2	1529
431.4	1538
431.6	1552
431.8	1567
432.0	1582
432.2	1590
432.4	1605
432.6	1614
432.8	1628
433.0	1637
433.2	1649
433.4	1661
433.6	1673
433.8	1683
434.0	1694
434.2	1705
434.4	1719
434.6	1732
434.8	1744
435.0	1758
435.2	1771
435.4	1784
435.6	1797
435.8	1809
436.0	1822
436.2	1832
436.4	1843
436.6	1855
436.8	1865
437.0	1876
437.2	1887
437.4	1902
437.6	1916
437.8	1932
438.0	1945
438.2	1960
438.4	1970
438.6	1983
438.8	1997
439.0	2011
439.2	2028
439.4	2040
439.6	2053
439.8	2073
440.0	2082
440.2	2102
440.4	2117
440.6	2132
440.8	2146
441.0	2161
441.2	2175
441.4	2185
441.6	2203
441.8	2213
442.0	2228
442.2	2241
442.4	2256
442.6	2272
442.8	2292
443.0	2305
443.2	2319
443.4	2337
443.6	2352
443.8	2371
444.0	2383
444.2	2402
444.4	2418
444.6	2432
444.8	2453
445.0	2473
445.2	2494
445.4	2508
445.6	2525
445.8	2538
446.0	2554
446.2	2574
446.4	2593
446.6	2613
446.8	2633
447.0	2651
447.2	2669
447.4	2688
447.6	2707
447.8	2729
448.0	2748
448.2	2766
448.4	2773
448.6	2787
448.8	2802
449.0	2816
449.2	2832
449.4	2847
449.6	2855
449.8	2867
450.0	2877
450.2	2892
450.4	2902
450.6	2917
450.8	2929
451.0	2942
451.2	2957
451.4	2964
451.6	2981
451.8	2994
452.0	3000
452.2	3013
452.4	3023
452.6	3034
452.8	3052
453.0	3068
453.2	3084
453.4	3101
453.6	3110
453.8	3117
454.0	3127
454.2	3145
454.4	3165
454.6	3176
454.8	3187
455.0	3204
455.2	3217
455.4	3226
455.6	3238
455.8	3248
456.0	3256
456.2	3270
456.4	3281
456.6	3291
456.8	3302
457.0	3312
457.2	3327
457.4	3338
457.6	3349
457.8	3360
458.0	3378
458.2	3391
458.4	3398
458.6	3404
458.8	3418
459.0	3432
459.2	3437
459.4	3449
459.6	3460
459.8	3476
460.0	3489
460.2	3493
460.4	3496
460.6	3502
460.8	3515
461.0	3529
461.2	3536
461.4	3542
461.6	3546
461.8	3563
462.0	3571
462.2	3577
462.4	3586
462.6	3599
462.8	3605
463.0	3616
463.2	3627
463.4	3630
463.6	3642
463.8	3654
464.0	3668
464.2	3677
464.4	3690
464.6	3702
464.8	3713
465.0	3724
465.2	3738
465.4	3750
465.6	3759
465.8	3767
466.0	3778
466.2	3792
466.4	3800
466.6	3815
466.8	3823
467.0	3839
467.2	3855
467.4	3862
467.6	3878
467.8	3888
468.0	3894
468.2	3903
468.4	3910
468.6	3920
468.8	3933
469.0	3944
469.2	3951
469.4	3959
469.6	3972
469.8	3983
470.0	3998
470.2	4008
470.4	4023
470.6	4035
470.8	4049
471.0	4062
471.2	4076
471.4	4091
471.6	4110
471.8	4125
472.0	4135
472.2	4154
472.4	4174
472.6	4197
472.8	4216
473.0	4229
473.2	4248
473.4	4275
473.6	4296
473.8	4319
474.0	4349
474.2	4366
474.4	4394
474.6	4412
474.8	4440
475.0	4461
475.2	4492
475.4	4518
475.6	4551
475.8	4577
476.0	4602
476.2	4623
476.4	4650
476.6	4681
476.8	4719
477.0	4749
477.2	4787
477.4	4823
477.6	4860
477.8	4895
478.0	4935
478.2	4984
478.4	5023
478.6	5061
478.8	5102
479.0	5139
479.2	5182
479.4	5217
479.6	5255
479.8	5291
480.0	5326
480.2	5360
480.4	5395
480.6	5430
480.8	5463
481.0	5495
481.2	5530
481.4	5554
481.6	5581
481.8	5606
482.0	5630
482.2	5666
482.4	5697
482.6	5727
482.8	5754
483.0	5783
483.2	5816
483.4	5840
483.6	5873
483.8	5895
484.0	5912
484.2	5931
484.4	5950
484.6	5976
484.8	6004
485.0	6023
485.2	6056
485.4	6075
485.6	6093
485.8	6113
486.0	6141
486.2	6164
486.4	6180
486.6	6196
486.8	6210
487.0	6225
487.2	6231
487.4	6243
487.6	6256
487.8	6264
488.0	6274
488.2	6288
488.4	6302
488.6	6313
488.8	6313
489.0	6312
489.2	6322
489.4	6318
489.6	6320
489.8	6318
490.0	6314
490.2	6301
490.4	6298
490.6	6290
490.8	6284
491.0	6267
491.2	6253
491.4	6240
491.6	6218
491.8	6208
492.0	6186
492.2	6162
492.4	6138
492.6	6128
492.8	6096
493.0	6056
493.2	6019
493.4	5984
493.6	5944
493.8	5916
494.0	5877
494.2	5837
494.4	5786
494.6	5741
494.8	5692
495.0	5641
495.2	5588
495.4	5536
495.6	5478
495.8	5423
496.0	5364
496.2	5309
496.4	5255
496.6	5197
496.8	5135
497.0	5080
497.2	5016
497.4	4953
497.6	4889
497.8	4825
498.0	4765
498.2	4706
498.4	4639
498.6	4587
498.8	4525
499.0	4458
499.2	4383
499.4	4317
499.6	4241
499.8	4182
500.0	4118

