Sample:	'PbX2(EM)
File name:	PbX2_20251114_171929.FDS
Operator:	YQFX
Comment:	'

Instrument
Model:	F-7000 FL Spectrophotometer
Serial number:	3041-006
ROM Version:	5J14000 12

Instrument parameters
Measurement type:	Wavelength scan
Scan mode:	Emission
Data mode:	Fluorescence
EX WL:	272.0 nm
EM  Start WL:	290.0 nm
EM  End WL:	450.0 nm
Scan speed:	1200 nm/min
Delay:	0.0 s
EX Slit:	2.5 nm
EM Slit:	2.5 nm
PMT Voltage:	700 V
Response:	Auto 
Corrected spectra:	Off
Shutter control:	On

Data points
nm	Data
290.0	40.97
290.2	39.69
290.4	39.79
290.6	41.66
290.8	41.37
291.0	39.93
291.2	41.40
291.4	44.72
291.6	45.09
291.8	44.29
292.0	44.87
292.2	45.76
292.4	46.21
292.6	45.81
292.8	45.68
293.0	47.50
293.2	46.83
293.4	47.93
293.6	50.24
293.8	52.33
294.0	53.85
294.2	54.39
294.4	54.58
294.6	54.78
294.8	57.74
295.0	60.55
295.2	61.34
295.4	64.93
295.6	66.42
295.8	70.34
296.0	75.41
296.2	79.81
296.4	84.64
296.6	90.29
296.8	96.11
297.0	101.0
297.2	105.4
297.4	111.6
297.6	120.1
297.8	128.2
298.0	136.8
298.2	144.8
298.4	151.1
298.6	158.5
298.8	168.7
299.0	170.4
299.2	176.0
299.4	179.1
299.6	186.9
299.8	192.5
300.0	199.7
300.2	200.7
300.4	203.1
300.6	207.3
300.8	213.2
301.0	214.7
301.2	215.1
301.4	215.3
301.6	216.2
301.8	216.4
302.0	211.9
302.2	210.1
302.4	206.7
302.6	199.5
302.8	200.7
303.0	200.0
303.2	199.6
303.4	197.8
303.6	195.7
303.8	195.2
304.0	195.2
304.2	192.9
304.4	194.8
304.6	197.7
304.8	200.8
305.0	207.1
305.2	210.8
305.4	217.6
305.6	214.4
305.8	220.2
306.0	225.9
306.2	231.8
306.4	230.7
306.6	238.6
306.8	243.8
307.0	247.6
307.2	256.9
307.4	264.2
307.6	276.9
307.8	282.5
308.0	291.7
308.2	299.9
308.4	315.1
308.6	318.0
308.8	330.7
309.0	340.5
309.2	351.9
309.4	365.1
309.6	369.5
309.8	381.6
310.0	391.4
310.2	397.5
310.4	412.4
310.6	423.9
310.8	439.9
311.0	457.4
311.2	472.9
311.4	483.2
311.6	493.5
311.8	506.7
312.0	523.4
312.2	537.9
312.4	549.3
312.6	565.4
312.8	583.7
313.0	598.4
313.2	615.7
313.4	634.7
313.6	649.0
313.8	665.2
314.0	682.3
314.2	697.4
314.4	707.6
314.6	730.2
314.8	749.5
315.0	773.5
315.2	790.4
315.4	800.5
315.6	811.7
315.8	830.1
316.0	841.2
316.2	860.1
316.4	880.7
316.6	894.9
316.8	911.6
317.0	933.9
317.2	954.7
317.4	966.9
317.6	975.6
317.8	1006
318.0	1034
318.2	1059
318.4	1082
318.6	1098
318.8	1120
319.0	1153
319.2	1179
319.4	1209
319.6	1234
319.8	1250
320.0	1286
320.2	1303
320.4	1323
320.6	1337
320.8	1351
321.0	1376
321.2	1408
321.4	1429
321.6	1448
321.8	1476
322.0	1499
322.2	1527
322.4	1544
322.6	1574
322.8	1604
323.0	1623
323.2	1643
323.4	1665
323.6	1693
323.8	1721
324.0	1746
324.2	1746
324.4	1775
324.6	1790
324.8	1810
325.0	1845
325.2	1880
325.4	1906
325.6	1934
325.8	1950
326.0	1985
326.2	2004
326.4	2049
326.6	2080
326.8	2106
327.0	2128
327.2	2146
327.4	2167
327.6	2194
327.8	2213
328.0	2235
328.2	2267
328.4	2297
328.6	2326
328.8	2358
329.0	2380
329.2	2410
329.4	2435
329.6	2464
329.8	2484
330.0	2508
330.2	2524
330.4	2539
330.6	2552
330.8	2579
331.0	2613
331.2	2662
331.4	2668
331.6	2683
331.8	2693
332.0	2709
332.2	2724
332.4	2762
332.6	2785
332.8	2812
333.0	2839
333.2	2858
333.4	2885
333.6	2922
333.8	2939
334.0	2965
334.2	2986
334.4	2985
334.6	3013
334.8	3049
335.0	3051
335.2	3093
335.4	3105
335.6	3123
335.8	3143
336.0	3160
336.2	3185
336.4	3188
336.6	3215
336.8	3229
337.0	3263
337.2	3278
337.4	3290
337.6	3285
337.8	3305
338.0	3321
338.2	3339
338.4	3350
338.6	3367
338.8	3365
339.0	3382
339.2	3407
339.4	3425
339.6	3439
339.8	3454
340.0	3475
340.2	3478
340.4	3503
340.6	3509
340.8	3505
341.0	3512
341.2	3533
341.4	3553
341.6	3558
341.8	3570
342.0	3592
342.2	3603
342.4	3616
342.6	3632
342.8	3651
343.0	3668
343.2	3672
343.4	3682
343.6	3694
343.8	3701
344.0	3691
344.2	3704
344.4	3689
344.6	3706
344.8	3723
345.0	3746
345.2	3746
345.4	3743
345.6	3756
345.8	3748
346.0	3747
346.2	3741
346.4	3742
346.6	3752
346.8	3765
347.0	3767
347.2	3784
347.4	3775
347.6	3786
347.8	3783
348.0	3787
348.2	3784
348.4	3788
348.6	3793
348.8	3795
349.0	3800
349.2	3804
349.4	3785
349.6	3796
349.8	3797
350.0	3784
350.2	3793
350.4	3793
350.6	3794
350.8	3788
351.0	3780
351.2	3791
351.4	3796
351.6	3795
351.8	3786
352.0	3762
352.2	3757
352.4	3758
352.6	3767
352.8	3766
353.0	3758
353.2	3738
353.4	3736
353.6	3732
353.8	3720
354.0	3708
354.2	3690
354.4	3695
354.6	3690
354.8	3684
355.0	3686
355.2	3671
355.4	3641
355.6	3628
355.8	3641
356.0	3621
356.2	3621
356.4	3618
356.6	3609
356.8	3597
357.0	3591
357.2	3592
357.4	3592
357.6	3586
357.8	3573
358.0	3583
358.2	3567
358.4	3559
358.6	3552
358.8	3545
359.0	3544
359.2	3523
359.4	3510
359.6	3492
359.8	3474
360.0	3461
360.2	3446
360.4	3447
360.6	3429
360.8	3418
361.0	3405
361.2	3390
361.4	3399
361.6	3391
361.8	3378
362.0	3356
362.2	3348
362.4	3336
362.6	3341
362.8	3315
363.0	3301
363.2	3290
363.4	3292
363.6	3284
363.8	3272
364.0	3245
364.2	3241
364.4	3225
364.6	3202
364.8	3204
365.0	3187
365.2	3176
365.4	3170
365.6	3148
365.8	3126
366.0	3112
366.2	3090
366.4	3067
366.6	3066
366.8	3052
367.0	3041
367.2	3022
367.4	3021
367.6	2997
367.8	3001
368.0	2969
368.2	2945
368.4	2926
368.6	2917
368.8	2905
369.0	2889
369.2	2874
369.4	2850
369.6	2836
369.8	2829
370.0	2813
370.2	2787
370.4	2790
370.6	2779
370.8	2768
371.0	2741
371.2	2729
371.4	2722
371.6	2692
371.8	2678
372.0	2670
372.2	2648
372.4	2649
372.6	2621
372.8	2599
373.0	2597
373.2	2579
373.4	2580
373.6	2555
373.8	2544
374.0	2539
374.2	2525
374.4	2520
374.6	2500
374.8	2479
375.0	2458
375.2	2453
375.4	2429
375.6	2411
375.8	2394
376.0	2358
376.2	2345
376.4	2343
376.6	2336
376.8	2319
377.0	2295
377.2	2280
377.4	2270
377.6	2245
377.8	2240
378.0	2234
378.2	2224
378.4	2217
378.6	2192
378.8	2176
379.0	2152
379.2	2151
379.4	2144
379.6	2131
379.8	2120
380.0	2111
380.2	2092
380.4	2082
380.6	2066
380.8	2053
381.0	2040
381.2	2027
381.4	2006
381.6	1985
381.8	1966
382.0	1953
382.2	1945
382.4	1932
382.6	1916
382.8	1907
383.0	1897
383.2	1900
383.4	1885
383.6	1865
383.8	1841
384.0	1832
384.2	1814
384.4	1799
384.6	1785
384.8	1794
385.0	1768
385.2	1749
385.4	1736
385.6	1719
385.8	1701
386.0	1676
386.2	1674
386.4	1673
386.6	1663
386.8	1652
387.0	1636
387.2	1631
387.4	1622
387.6	1617
387.8	1608
388.0	1591
388.2	1571
388.4	1567
388.6	1561
388.8	1536
389.0	1530
389.2	1510
389.4	1497
389.6	1491
389.8	1477
390.0	1467
390.2	1460
390.4	1450
390.6	1433
390.8	1426
391.0	1412
391.2	1406
391.4	1391
391.6	1381
391.8	1374
392.0	1363
392.2	1347
392.4	1343
392.6	1338
392.8	1327
393.0	1314
393.2	1297
393.4	1291
393.6	1276
393.8	1262
394.0	1252
394.2	1244
394.4	1231
394.6	1218
394.8	1214
395.0	1207
395.2	1203
395.4	1188
395.6	1176
395.8	1170
396.0	1157
396.2	1155
396.4	1144
396.6	1128
396.8	1117
397.0	1115
397.2	1105
397.4	1099
397.6	1089
397.8	1080
398.0	1065
398.2	1052
398.4	1041
398.6	1032
398.8	1027
399.0	1009
399.2	1004
399.4	995.7
399.6	985.5
399.8	974.0
400.0	969.0
400.2	965.4
400.4	959.7
400.6	963.9
400.8	955.5
401.0	951.1
401.2	941.5
401.4	932.8
401.6	925.1
401.8	919.7
402.0	911.3
402.2	899.4
402.4	885.4
402.6	873.7
402.8	871.3
403.0	867.5
403.2	857.2
403.4	840.5
403.6	835.5
403.8	835.6
404.0	826.7
404.2	813.8
404.4	806.8
404.6	800.9
404.8	795.0
405.0	784.2
405.2	772.1
405.4	767.6
405.6	765.7
405.8	757.1
406.0	757.0
406.2	745.9
406.4	742.6
406.6	731.7
406.8	723.6
407.0	721.7
407.2	718.7
407.4	713.5
407.6	707.5
407.8	702.7
408.0	691.2
408.2	682.7
408.4	678.0
408.6	665.6
408.8	659.8
409.0	657.1
409.2	649.9
409.4	642.2
409.6	634.7
409.8	631.5
410.0	627.1
410.2	629.1
410.4	619.4
410.6	612.0
410.8	610.6
411.0	595.7
411.2	587.9
411.4	587.9
411.6	584.9
411.8	578.7
412.0	577.8
412.2	568.2
412.4	565.4
412.6	562.1
412.8	552.5
413.0	545.6
413.2	544.9
413.4	539.4
413.6	530.6
413.8	524.5
414.0	525.4
414.2	518.8
414.4	511.7
414.6	504.5
414.8	503.7
415.0	491.0
415.2	491.4
415.4	491.0
415.6	486.3
415.8	484.0
416.0	479.6
416.2	475.0
416.4	469.4
416.6	467.5
416.8	464.0
417.0	455.3
417.2	452.2
417.4	448.4
417.6	433.7
417.8	434.4
418.0	428.9
418.2	425.7
418.4	427.1
418.6	426.5
418.8	415.8
419.0	415.1
419.2	413.4
419.4	411.7
419.6	408.4
419.8	404.5
420.0	398.6
420.2	395.9
420.4	392.4
420.6	388.8
420.8	387.9
421.0	380.2
421.2	373.1
421.4	375.9
421.6	375.1
421.8	364.4
422.0	358.1
422.2	351.6
422.4	351.2
422.6	351.2
422.8	350.3
423.0	347.5
423.2	342.4
423.4	338.5
423.6	333.6
423.8	332.1
424.0	326.1
424.2	319.9
424.4	315.9
424.6	316.0
424.8	310.8
425.0	316.7
425.2	310.5
425.4	300.5
425.6	298.9
425.8	294.5
426.0	288.6
426.2	284.5
426.4	284.0
426.6	282.3
426.8	275.9
427.0	273.2
427.2	275.4
427.4	273.8
427.6	268.4
427.8	268.1
428.0	265.5
428.2	259.4
428.4	259.3
428.6	259.5
428.8	259.6
429.0	254.0
429.2	254.1
429.4	247.0
429.6	244.8
429.8	245.9
430.0	244.6
430.2	241.4
430.4	238.2
430.6	241.6
430.8	231.6
431.0	225.3
431.2	228.0
431.4	225.6
431.6	222.3
431.8	219.7
432.0	220.5
432.2	215.5
432.4	211.9
432.6	213.3
432.8	212.8
433.0	211.8
433.2	208.5
433.4	208.2
433.6	202.2
433.8	200.3
434.0	199.7
434.2	196.1
434.4	196.9
434.6	196.7
434.8	194.9
435.0	190.5
435.2	187.8
435.4	187.4
435.6	185.8
435.8	186.3
436.0	179.3
436.2	179.6
436.4	179.1
436.6	176.7
436.8	174.4
437.0	171.1
437.2	169.0
437.4	169.7
437.6	169.5
437.8	167.7
438.0	169.5
438.2	169.2
438.4	167.4
438.6	163.7
438.8	163.7
439.0	162.0
439.2	159.7
439.4	157.9
439.6	159.1
439.8	155.3
440.0	152.7
440.2	152.0
440.4	151.7
440.6	146.5
440.8	145.3
441.0	144.5
441.2	146.8
441.4	144.6
441.6	143.1
441.8	143.4
442.0	140.9
442.2	139.1
442.4	136.2
442.6	132.8
442.8	131.5
443.0	130.4
443.2	130.3
443.4	129.0
443.6	124.6
443.8	122.0
444.0	123.9
444.2	125.0
444.4	123.1
444.6	122.6
444.8	119.3
445.0	113.8
445.2	114.3
445.4	112.6
445.6	114.2
445.8	112.1
446.0	111.0
446.2	111.2
446.4	112.2
446.6	112.0
446.8	109.7
447.0	108.1
447.2	106.5
447.4	106.3
447.6	103.2
447.8	102.5
448.0	102.6
448.2	105.0
448.4	104.6
448.6	101.5
448.8	98.70
449.0	100.2
449.2	97.61
449.4	98.69
449.6	96.94
449.8	96.42
450.0	96.27

